RÖNTEC GmbH Berlin, Germany
Quantax 1.2

Date: 3/19/2019 10:18:15 AM
Real time: 686727
Life time: 600000
Pulse density: 46115


Detector type: XFLASH
Window type: 
Detector thickness: 0.45
Si dead layer:0

Calibration, lin.: 5.004
Calibration, abs.: -484.3
Mn FWHM: 135.26
Fano factor: 0.11
Channels: 4096

Energy Counts
-0.4843      0
-0.4793      0
-0.4743      0
-0.4693      0
-0.4643      0
-0.4593      0
-0.4543      0
-0.4493      0
-0.4443      0
-0.4393      0
-0.4343      0
-0.4293      0
-0.4243      0
-0.4192      0
-0.4142      0
-0.4092      0
-0.4042      0
-0.3992      0
-0.3942      0
-0.3892      0
-0.3842      0
-0.3792      0
-0.3742      0
-0.3692      0
-0.3642      0
-0.3592      0
-0.3542      0
-0.3492      0
-0.3442      0
-0.3392      0
-0.3342      0
-0.3292      0
-0.3242      0
-0.3192      0
-0.3142      0
-0.3092      0
-0.3042      0
-0.2992      0
-0.2941      0
-0.2891      0
-0.2841      0
-0.2791      0
-0.2741      0
-0.2691      0
-0.2641      0
-0.2591      0
-0.2541      0
-0.2491      0
-0.2441      0
-0.2391      0
-0.2341      0
-0.2291      0
-0.2241      0
-0.2191      0
-0.2141      0
-0.2091      0
-0.2041      0
-0.1991      0
-0.1941      0
-0.1891      0
-0.1841      0
-0.1791      0
-0.1741      0
 -0.169      0
 -0.164      0
 -0.159      0
 -0.154      0
 -0.149      1
 -0.144      2
 -0.139      3
 -0.134      7
 -0.129     17
 -0.124     42
 -0.119     87
 -0.114    149
 -0.109    341
 -0.104    613
 -0.099   1066
 -0.094   1998
 -0.089   3432
 -0.084   6053
 -0.079  10051
 -0.074  16064
 -0.069  24704
 -0.064  37256
 -0.059  54171
 -0.054  77180
 -0.049 105623
-0.0439 140219
-0.0389 179717
-0.0339 223673
-0.0289 269661
-0.0239 314343
-0.0189 356807
-0.0139 389331
-0.0089 412610
-0.0039 423206
 0.0011 422841
 0.0061 407877
 0.0111 380735
 0.0161 345143
 0.0211 303517
 0.0261 256960
 0.0311 212030
 0.0361 169531
 0.0411 132103
 0.0461  98717
 0.0511  72208
 0.0561  50807
 0.0611  34944
 0.0661  23198
 0.0711  15013
 0.0761   9609
 0.0812   6007
 0.0862   3453
 0.0912   2047
 0.0962   1319
 0.1012    716
 0.1062    489
 0.1112    325
 0.1162    251
 0.1212    158
 0.1262    132
 0.1312    124
 0.1362    111
 0.1412    114
 0.1462    105
 0.1512    113
 0.1562     83
 0.1612     66
 0.1662     59
 0.1712     55
 0.1762     42
 0.1812     60
 0.1862     48
 0.1912     36
 0.1962     34
 0.2012     32
 0.2063     36
 0.2113     31
 0.2163     34
 0.2213     24
 0.2263     35
 0.2313     27
 0.2363     31
 0.2413     17
 0.2463     17
 0.2513     14
 0.2563     14
 0.2613     13
 0.2663      8
 0.2713      9
 0.2763     13
 0.2813     10
 0.2863      9
 0.2913      6
 0.2963      3
 0.3013      2
 0.3063      2
 0.3113      6
 0.3163      5
 0.3213      4
 0.3263     19
 0.3314     27
 0.3364    103
 0.3414    305
 0.3464    770
 0.3514   1339
 0.3564   1745
 0.3614   1878
 0.3664   1942
 0.3714   2016
 0.3764   1899
 0.3814   1913
 0.3864   1916
 0.3914   1888
 0.3964   1966
 0.4014   1853
 0.4064   1876
 0.4114   1886
 0.4164   1784
 0.4214   1788
 0.4264   1793
 0.4314   1748
 0.4364   1751
 0.4414   1679
 0.4464   1746
 0.4514   1644
 0.4565   1804
 0.4615   1664
 0.4665   1736
 0.4715   1695
 0.4765   1594
 0.4815   1666
 0.4865   1669
 0.4915   1690
 0.4965   1647
 0.5015   1553
 0.5065   1574
 0.5115   1572
 0.5165   1634
 0.5215   1644
 0.5265   1570
 0.5315   1596
 0.5365   1606
 0.5415   1580
 0.5465   1519
 0.5515   1507
 0.5565   1493
 0.5615   1484
 0.5665   1571
 0.5715   1518
 0.5765   1531
 0.5816   1494
 0.5866   1529
 0.5916   1469
 0.5966   1471
 0.6016   1508
 0.6066   1445
 0.6116   1447
 0.6166   1387
 0.6216   1508
 0.6266   1433
 0.6316   1426
 0.6366   1361
 0.6416   1415
 0.6466   1439
 0.6516   1444
 0.6566   1431
 0.6616   1432
 0.6666   1443
 0.6716   1366
 0.6766   1393
 0.6816   1368
 0.6866   1358
 0.6916   1270
 0.6966   1379
 0.7016   1424
 0.7067   1321
 0.7117   1350
 0.7167   1293
 0.7217   1315
 0.7267   1408
 0.7317   1354
 0.7367   1330
 0.7417   1364
 0.7467   1394
 0.7517   1342
 0.7567   1271
 0.7617   1325
 0.7667   1267
 0.7717   1353
 0.7767   1297
 0.7817   1274
 0.7867   1292
 0.7917   1343
 0.7967   1277
 0.8017   1242
 0.8067   1236
 0.8117   1258
 0.8167   1282
 0.8217   1281
 0.8267   1319
 0.8318   1281
 0.8368   1285
 0.8418   1190
 0.8468   1246
 0.8518   1306
 0.8568   1239
 0.8618   1194
 0.8668   1262
 0.8718   1265
 0.8768   1190
 0.8818   1216
 0.8868   1249
 0.8918   1291
 0.8968   1185
 0.9018   1285
 0.9068   1219
 0.9118   1221
 0.9168   1211
 0.9218   1232
 0.9268   1213
 0.9318   1221
 0.9368   1294
 0.9418   1267
 0.9468   1106
 0.9518   1157
 0.9569   1220
 0.9619   1193
 0.9669   1167
 0.9719   1234
 0.9769   1136
 0.9819   1170
 0.9869   1188
 0.9919   1161
 0.9969   1129
 1.0019   1172
 1.0069   1123
 1.0119   1117
 1.0169   1138
 1.0219   1162
 1.0269   1158
 1.0319   1108
 1.0369   1109
 1.0419   1141
 1.0469   1169
 1.0519   1108
 1.0569   1016
 1.0619   1099
 1.0669   1087
 1.0719   1072
 1.0769   1124
  1.082   1094
  1.087   1053
  1.092   1099
  1.097   1055
  1.102   1097
  1.107   1010
  1.112   1039
  1.117   1073
  1.122    976
  1.127   1026
  1.132   1043
  1.137    974
  1.142    992
  1.147    964
  1.152   1012
  1.157   1058
  1.162    991
  1.167    993
  1.172   1017
  1.177    926
  1.182    939
  1.187   1005
  1.192    972
  1.197    979
  1.202    963
 1.2071    959
 1.2121    924
 1.2171    919
 1.2221    976
 1.2271    922
 1.2321    922
 1.2371    914
 1.2421    897
 1.2471    895
 1.2521    890
 1.2571    895
 1.2621    879
 1.2671    909
 1.2721    920
 1.2771    942
 1.2821    849
 1.2871    929
 1.2921    832
 1.2971    910
 1.3021    871
 1.3071    843
 1.3121    813
 1.3171    807
 1.3221    854
 1.3271    853
 1.3322    781
 1.3372    834
 1.3422    842
 1.3472    836
 1.3522    895
 1.3572    844
 1.3622    841
 1.3672    851
 1.3722    814
 1.3772    854
 1.3822    842
 1.3872    840
 1.3922    827
 1.3972    859
 1.4022    862
 1.4072    891
 1.4122    847
 1.4172    833
 1.4222    921
 1.4272    932
 1.4322    920
 1.4372    977
 1.4422    951
 1.4472   1056
 1.4522   1104
 1.4573   1148
 1.4623   1130
 1.4673   1113
 1.4723   1170
 1.4773   1175
 1.4823   1148
 1.4873   1258
 1.4923   1166
 1.4973   1258
 1.5023   1235
 1.5073   1187
 1.5123   1175
 1.5173   1115
 1.5223   1135
 1.5273   1073
 1.5323   1040
 1.5373   1019
 1.5423   1024
 1.5473   1011
 1.5523   1009
 1.5573    965
 1.5623    912
 1.5673    911
 1.5723    922
 1.5773    881
 1.5824    887
 1.5874    864
 1.5924    894
 1.5974    855
 1.6024    863
 1.6074    870
 1.6124    872
 1.6174    811
 1.6224    810
 1.6274    861
 1.6324    905
 1.6374    942
 1.6424    924
 1.6474    963
 1.6524   1142
 1.6574   1269
 1.6624   1296
 1.6674   1579
 1.6724   1768
 1.6774   2080
 1.6824   2277
 1.6874   2654
 1.6924   2910
 1.6974   3156
 1.7024   3729
 1.7075   3978
 1.7125   4170
 1.7175   4825
 1.7225   5054
 1.7275   5341
 1.7325   5646
 1.7375   5637
 1.7425   5726
 1.7475   5592
 1.7525   5457
 1.7575   5252
 1.7625   5152
 1.7675   4753
 1.7725   4434
 1.7775   4145
 1.7825   3744
 1.7875   3471
 1.7925   3080
 1.7975   2782
 1.8025   2450
 1.8075   2256
 1.8125   2087
 1.8175   1914
 1.8225   1731
 1.8275   1637
 1.8326   1528
 1.8376   1515
 1.8426   1442
 1.8476   1437
 1.8526   1374
 1.8576   1384
 1.8626   1465
 1.8676   1492
 1.8726   1594
 1.8776   1774
 1.8826   1768
 1.8876   1987
 1.8926   2090
 1.8976   2211
 1.9026   2367
 1.9076   2663
 1.9126   2812
 1.9176   2924
 1.9226   3216
 1.9276   3381
 1.9326   3455
 1.9376   3595
 1.9426   3637
 1.9476   3666
 1.9526   3683
 1.9577   3630
 1.9627   3509
 1.9677   3452
 1.9727   3386
 1.9777   3038
 1.9827   2952
 1.9877   2710
 1.9927   2534
 1.9977   2323
 2.0027   2194
 2.0077   1996
 2.0127   1785
 2.0177   1638
 2.0227   1618
 2.0277   1355
 2.0327   1262
 2.0377   1235
 2.0427   1162
 2.0477   1058
 2.0527   1147
 2.0577   1077
 2.0627    940
 2.0677   1053
 2.0727    957
 2.0777    940
 2.0828    969
 2.0878    922
 2.0928    915
 2.0978    946
 2.1028    893
 2.1078    937
 2.1128    877
 2.1178    867
 2.1228    843
 2.1278    891
 2.1328    877
 2.1378    840
 2.1428    871
 2.1478    841
 2.1528    859
 2.1578    824
 2.1628    833
 2.1678    923
 2.1728    885
 2.1778    867
 2.1828    898
 2.1878    848
 2.1928    946
 2.1978    905
 2.2028    981
 2.2079   1078
 2.2129   1020
 2.2179   1100
 2.2229   1106
 2.2279   1187
 2.2329   1290
 2.2379   1377
 2.2429   1453
 2.2479   1475
 2.2529   1611
 2.2579   1693
 2.2629   1749
 2.2679   1802
 2.2729   1973
 2.2779   1979
 2.2829   2256
 2.2879   2111
 2.2929   2218
 2.2979   2277
 2.3029   2210
 2.3079   2291
 2.3129   2258
 2.3179   2304
 2.3229   2168
 2.3279   2108
  2.333   2045
  2.338   1952
  2.343   1834
  2.348   1742
  2.353   1612
  2.358   1503
  2.363   1382
  2.368   1362
  2.373   1292
  2.378   1135
  2.383   1100
  2.388   1073
  2.393    946
  2.398    881
  2.403    891
  2.408    907
  2.413    872
  2.418    900
  2.423    839
  2.428    776
  2.433    851
  2.438    830
  2.443    870
  2.448    860
  2.453    807
 2.4581    821
 2.4631    852
 2.4681    851
 2.4731    848
 2.4781    866
 2.4831    798
 2.4881    868
 2.4931    770
 2.4981    796
 2.5031    846
 2.5081    792
 2.5131    821
 2.5181    765
 2.5231    778
 2.5281    776
 2.5331    772
 2.5381    859
 2.5431    792
 2.5481    785
 2.5531    756
 2.5581    765
 2.5631    840
 2.5681    820
 2.5731    763
 2.5781    852
 2.5832    812
 2.5882    833
 2.5932    830
 2.5982    846
 2.6032    893
 2.6082    807
 2.6132    916
 2.6182    871
 2.6232    884
 2.6282    879
 2.6332    903
 2.6382    865
 2.6432    880
 2.6482    916
 2.6532    821
 2.6582    793
 2.6632    795
 2.6682    822
 2.6732    820
 2.6782    825
 2.6832    866
 2.6882    812
 2.6932    813
 2.6982    822
 2.7032    826
 2.7083    815
 2.7133    730
 2.7183    785
 2.7233    826
 2.7283    776
 2.7333    838
 2.7383    831
 2.7433    839
 2.7483    843
 2.7533    822
 2.7583    821
 2.7633    799
 2.7683    826
 2.7733    798
 2.7783    837
 2.7833    836
 2.7883    809
 2.7933    814
 2.7983    822
 2.8033    838
 2.8083    839
 2.8133    820
 2.8183    892
 2.8233    830
 2.8283    831
 2.8334    827
 2.8384    806
 2.8434    794
 2.8484    849
 2.8534    893
 2.8584    857
 2.8634    849
 2.8684    902
 2.8734    855
 2.8784    841
 2.8834    917
 2.8884    932
 2.8934    937
 2.8984    987
 2.9034    966
 2.9084   1021
 2.9134    981
 2.9184    990
 2.9234   1049
 2.9284   1144
 2.9334   1076
 2.9384   1164
 2.9434   1174
 2.9484   1116
 2.9534   1158
 2.9585   1132
 2.9635   1132
 2.9685   1170
 2.9735   1237
 2.9785   1164
 2.9835   1158
 2.9885   1060
 2.9935   1100
 2.9985   1093
 3.0035   1027
 3.0085   1039
 3.0135   1054
 3.0185    956
 3.0235    998
 3.0285    913
 3.0335    999
 3.0385   1010
 3.0435    979
 3.0485    972
 3.0535    914
 3.0585   1012
 3.0635    955
 3.0685    908
 3.0735    983
 3.0785    926
 3.0836    941
 3.0886    962
 3.0936    950
 3.0986    992
 3.1036    982
 3.1086    970
 3.1136   1005
 3.1186    959
 3.1236   1060
 3.1286   1067
 3.1336   1105
 3.1386   1018
 3.1436   1060
 3.1486   1024
 3.1536    988
 3.1586   1127
 3.1636   1143
 3.1686   1126
 3.1736   1212
 3.1786   1199
 3.1836   1223
 3.1886   1248
 3.1936   1284
 3.1986   1342
 3.2036   1382
 3.2087   1460
 3.2137   1623
 3.2187   1759
 3.2237   1984
 3.2287   2096
 3.2337   2264
 3.2387   2470
 3.2437   2712
 3.2487   2925
 3.2537   3228
 3.2587   3532
 3.2637   3886
 3.2687   4327
 3.2737   4636
 3.2787   4886
 3.2837   5166
 3.2887   5390
 3.2937   5750
 3.2987   6106
 3.3037   6272
 3.3087   6270
 3.3137   6545
 3.3187   6465
 3.3237   6430
 3.3287   6058
 3.3338   6182
 3.3388   5857
 3.3438   5693
 3.3488   5353
 3.3538   5097
 3.3588   4839
 3.3638   4258
 3.3688   4161
 3.3738   3779
 3.3788   3414
 3.3838   3070
 3.3888   2815
 3.3938   2677
 3.3988   2370
 3.4038   2161
 3.4088   2036
 3.4138   1862
 3.4188   1768
 3.4238   1663
 3.4288   1591
 3.4338   1596
 3.4388   1522
 3.4438   1454
 3.4488   1458
 3.4538   1487
 3.4589   1586
 3.4639   1523
 3.4689   1599
 3.4739   1669
 3.4789   1808
 3.4839   1796
 3.4889   1971
 3.4939   1937
 3.4989   2113
 3.5039   2315
 3.5089   2503
 3.5139   2749
 3.5189   2838
 3.5239   3194
 3.5289   3672
 3.5339   4050
 3.5389   4504
 3.5439   5444
 3.5489   6076
 3.5539   7266
 3.5589   8722
 3.5639  10016
 3.5689  12258
 3.5739  14709
 3.5789  18064
  3.584  21655
  3.589  25960
  3.594  31631
  3.599  37470
  3.604  44250
  3.609  52628
  3.614  61880
  3.619  71776
  3.624  83446
  3.629  95390
  3.634 109018
  3.639 122379
  3.644 135826
  3.649 150717
  3.654 164090
  3.659 178090
  3.664 190422
  3.669 202968
  3.674 212487
  3.679 221750
  3.684 226857
  3.689 232245
  3.694 232867
  3.699 232070
  3.704 230535
 3.7091 223889
 3.7141 217537
 3.7191 207106
 3.7241 197131
 3.7291 183935
 3.7341 171678
 3.7391 156853
 3.7441 142755
 3.7491 128347
 3.7541 113769
 3.7591 100724
 3.7641  88057
 3.7691  75913
 3.7741  65065
 3.7791  55264
 3.7841  46461
 3.7891  38533
 3.7941  31723
 3.7991  26068
 3.8041  21458
 3.8091  17200
 3.8141  13921
 3.8191  11175
 3.8241   8966
 3.8291   7252
 3.8342   5952
 3.8392   4937
 3.8442   4196
 3.8492   3523
 3.8542   3184
 3.8592   2995
 3.8642   2868
 3.8692   2739
 3.8742   2761
 3.8792   2890
 3.8842   3123
 3.8892   3494
 3.8942   3866
 3.8992   4280
 3.9042   4799
 3.9092   5397
 3.9142   5995
 3.9192   6828
 3.9242   7881
 3.9292   8794
 3.9342  10023
 3.9392  11489
 3.9442  13020
 3.9492  14402
 3.9542  16194
 3.9593  17694
 3.9643  19769
 3.9693  21351
 3.9743  23340
 3.9793  24961
 3.9843  26680
 3.9893  28358
 3.9943  29658
 3.9993  30914
 4.0043  31971
 4.0093  32509
 4.0143  32743
 4.0193  33019
 4.0243  32861
 4.0293  32277
 4.0343  31365
 4.0393  30461
 4.0443  29090
 4.0493  27194
 4.0543  25582
 4.0593  23766
 4.0643  22037
 4.0693  20436
 4.0743  18242
 4.0793  16489
 4.0844  14665
 4.0894  12677
 4.0944  11250
 4.0994   9703
 4.1044   8245
 4.1094   7060
 4.1144   5913
 4.1194   5299
 4.1244   4321
 4.1294   3689
 4.1344   2996
 4.1394   2462
 4.1444   2165
 4.1494   1691
 4.1544   1448
 4.1594   1220
 4.1644   1095
 4.1694    946
 4.1744    857
 4.1794    752
 4.1844    683
 4.1894    622
 4.1944    554
 4.1994    537
 4.2044    520
 4.2095    462
 4.2145    448
 4.2195    435
 4.2245    499
 4.2295    451
 4.2345    444
 4.2395    424
 4.2445    465
 4.2495    439
 4.2545    404
 4.2595    466
 4.2645    447
 4.2695    419
 4.2745    442
 4.2795    432
 4.2845    433
 4.2895    466
 4.2945    431
 4.2995    458
 4.3045    474
 4.3095    474
 4.3145    432
 4.3195    444
 4.3245    454
 4.3295    460
 4.3346    497
 4.3396    510
 4.3446    514
 4.3496    583
 4.3546    548
 4.3596    592
 4.3646    598
 4.3696    609
 4.3746    667
 4.3796    708
 4.3846    820
 4.3896    914
 4.3946    983
 4.3996   1163
 4.4046   1232
 4.4096   1375
 4.4146   1623
 4.4196   1812
 4.4246   2035
 4.4296   2221
 4.4346   2454
 4.4396   2733
 4.4446   3111
 4.4496   3430
 4.4546   3696
 4.4597   3990
 4.4647   4431
 4.4697   4555
 4.4747   5075
 4.4797   5182
 4.4847   5492
 4.4897   5637
 4.4947   5673
 4.4997   5849
 4.5047   6166
 4.5097   6187
 4.5147   6090
 4.5197   6039
 4.5247   5954
 4.5297   5737
 4.5347   5533
 4.5397   5392
 4.5447   5184
 4.5497   4879
 4.5547   4478
 4.5597   4312
 4.5647   3890
 4.5697   3613
 4.5747   3469
 4.5797   3160
 4.5848   2787
 4.5898   2531
 4.5948   2429
 4.5998   2112
 4.6048   1939
 4.6098   1852
 4.6148   1726
 4.6198   1566
 4.6248   1553
 4.6298   1482
 4.6348   1375
 4.6398   1364
 4.6448   1251
 4.6498   1205
 4.6548   1168
 4.6598   1141
 4.6648   1084
 4.6698   1083
 4.6748   1055
 4.6798   1070
 4.6848   1039
 4.6898    930
 4.6948    905
 4.6998    958
 4.7048    861
 4.7099    801
 4.7149    820
 4.7199    782
 4.7249    711
 4.7299    715
 4.7349    698
 4.7399    687
 4.7449    652
 4.7499    591
 4.7549    646
 4.7599    634
 4.7649    659
 4.7699    658
 4.7749    677
 4.7799    636
 4.7849    704
 4.7899    686
 4.7949    729
 4.7999    712
 4.8049    759
 4.8099    797
 4.8149    794
 4.8199    844
 4.8249    883
 4.8299    908
  4.835    906
   4.84    953
  4.845    971
   4.85   1071
  4.855   1024
   4.86   1084
  4.865   1113
   4.87   1173
  4.875   1212
   4.88   1242
  4.885   1275
   4.89   1318
  4.895   1326
    4.9   1390
  4.905   1389
   4.91   1484
  4.915   1513
   4.92   1441
  4.925   1504
   4.93   1511
  4.935   1435
   4.94   1463
  4.945   1433
   4.95   1460
  4.955   1404
 4.9601   1395
 4.9651   1289
 4.9701   1266
 4.9751   1294
 4.9801   1180
 4.9851   1110
 4.9901   1073
 4.9951    996
 5.0001    961
 5.0051    869
 5.0101    818
 5.0151    786
 5.0201    771
 5.0251    721
 5.0301    689
 5.0351    600
 5.0401    603
 5.0451    546
 5.0501    547
 5.0551    527
 5.0601    498
 5.0651    472
 5.0701    482
 5.0751    463
 5.0801    442
 5.0852    484
 5.0902    447
 5.0952    485
 5.1002    452
 5.1052    458
 5.1102    454
 5.1152    411
 5.1202    456
 5.1252    442
 5.1302    441
 5.1352    434
 5.1402    492
 5.1452    455
 5.1502    452
 5.1552    450
 5.1602    479
 5.1652    484
 5.1702    497
 5.1752    436
 5.1802    453
 5.1852    462
 5.1902    548
 5.1952    489
 5.2002    508
 5.2052    476
 5.2103    492
 5.2153    472
 5.2203    540
 5.2253    506
 5.2303    514
 5.2353    509
 5.2403    496
 5.2453    497
 5.2503    475
 5.2553    471
 5.2603    510
 5.2653    532
 5.2703    522
 5.2753    522
 5.2803    520
 5.2853    532
 5.2903    482
 5.2953    565
 5.3003    530
 5.3053    575
 5.3103    541
 5.3153    580
 5.3203    610
 5.3253    564
 5.3303    540
 5.3354    625
 5.3404    592
 5.3454    632
 5.3504    608
 5.3554    660
 5.3604    650
 5.3654    666
 5.3704    692
 5.3754    637
 5.3804    695
 5.3854    691
 5.3904    675
 5.3954    742
 5.4004    736
 5.4054    692
 5.4104    736
 5.4154    734
 5.4204    686
 5.4254    729
 5.4304    748
 5.4354    675
 5.4404    723
 5.4454    678
 5.4504    661
 5.4554    612
 5.4605    681
 5.4655    670
 5.4705    618
 5.4755    602
 5.4805    608
 5.4855    592
 5.4905    550
 5.4955    544
 5.5005    525
 5.5055    489
 5.5105    526
 5.5155    502
 5.5205    493
 5.5255    519
 5.5305    460
 5.5355    481
 5.5405    483
 5.5455    465
 5.5505    500
 5.5555    494
 5.5605    478
 5.5655    451
 5.5705    469
 5.5755    457
 5.5805    484
 5.5856    449
 5.5906    497
 5.5956    463
 5.6006    450
 5.6056    462
 5.6106    473
 5.6156    472
 5.6206    453
 5.6256    445
 5.6306    504
 5.6356    462
 5.6406    487
 5.6456    450
 5.6506    404
 5.6556    439
 5.6606    480
 5.6656    475
 5.6706    454
 5.6756    449
 5.6806    443
 5.6856    491
 5.6906    451
 5.6956    503
 5.7006    486
 5.7056    478
 5.7107    476
 5.7157    462
 5.7207    530
 5.7257    542
 5.7307    554
 5.7357    594
 5.7407    610
 5.7457    641
 5.7507    668
 5.7557    744
 5.7607    755
 5.7657    882
 5.7707    930
 5.7757   1006
 5.7807   1094
 5.7857   1198
 5.7907   1364
 5.7957   1527
 5.8007   1646
 5.8057   1893
 5.8107   2030
 5.8157   2232
 5.8207   2372
 5.8257   2739
 5.8307   2891
 5.8358   3136
 5.8408   3366
 5.8458   3566
 5.8508   3887
 5.8558   4074
 5.8608   4316
 5.8658   4494
 5.8708   4674
 5.8758   4728
 5.8808   4952
 5.8858   4918
 5.8908   5104
 5.8958   5228
 5.9008   5206
 5.9058   5182
 5.9108   4953
 5.9158   4986
 5.9208   4791
 5.9258   4592
 5.9308   4476
 5.9358   4283
 5.9408   3880
 5.9458   3725
 5.9508   3631
 5.9558   3299
 5.9609   3015
 5.9659   2852
 5.9709   2579
 5.9759   2465
 5.9809   2217
 5.9859   1944
 5.9909   1895
 5.9959   1679
 6.0009   1458
 6.0059   1421
 6.0109   1286
 6.0159   1209
 6.0209   1097
 6.0259   1008
 6.0309    990
 6.0359    933
 6.0409    873
 6.0459    844
 6.0509    792
 6.0559    826
 6.0609    746
 6.0659    797
 6.0709    824
 6.0759    759
 6.0809    782
  6.086    789
  6.091    778
  6.096    825
  6.101    804
  6.106    827
  6.111    815
  6.116    806
  6.121    855
  6.126    873
  6.131    889
  6.136    874
  6.141    897
  6.146    955
  6.151    994
  6.156   1060
  6.161   1130
  6.166   1158
  6.171   1247
  6.176   1256
  6.181   1362
  6.186   1467
  6.191   1592
  6.196   1704
  6.201   1880
  6.206   2143
 6.2111   2330
 6.2161   2657
 6.2211   2997
 6.2261   3494
 6.2311   4059
 6.2361   4731
 6.2411   5733
 6.2461   6717
 6.2511   8009
 6.2561   9434
 6.2611  11004
 6.2661  12976
 6.2711  15401
 6.2761  17918
 6.2811  21086
 6.2861  24614
 6.2911  28538
 6.2961  32880
 6.3011  37761
 6.3061  42712
 6.3111  48629
 6.3161  55055
 6.3211  61478
 6.3261  68171
 6.3311  75131
 6.3362  82383
 6.3412  89861
 6.3462  96900
 6.3512 104157
 6.3562 111134
 6.3612 117719
 6.3662 124278
 6.3712 130197
 6.3762 134478
 6.3812 139205
 6.3862 142454
 6.3912 144456
 6.3962 145465
 6.4012 146594
 6.4062 146450
 6.4112 144437
 6.4162 141832
 6.4212 138592
 6.4262 133900
 6.4312 128176
 6.4362 123310
 6.4412 116811
 6.4462 110121
 6.4512 103182
 6.4562  95557
 6.4613  88277
 6.4663  80971
 6.4713  74246
 6.4763  66645
 6.4813  60038
 6.4863  53574
 6.4913  47332
 6.4963  42025
 6.5013  36534
 6.5063  31859
 6.5113  27611
 6.5163  23808
 6.5213  20357
 6.5263  17419
 6.5313  14633
 6.5363  12341
 6.5413  10330
 6.5463   8750
 6.5513   7190
 6.5563   5974
 6.5613   4861
 6.5663   4078
 6.5713   3308
 6.5763   2681
 6.5813   2180
 6.5864   2056
 6.5914   1576
 6.5964   1363
 6.6014   1190
 6.6064   1055
 6.6114    928
 6.6164    859
 6.6214    768
 6.6264    676
 6.6314    630
 6.6364    586
 6.6414    534
 6.6464    536
 6.6514    521
 6.6564    526
 6.6614    473
 6.6664    499
 6.6714    454
 6.6764    518
 6.6814    428
 6.6864    483
 6.6914    455
 6.6964    450
 6.7014    421
 6.7064    447
 6.7115    464
 6.7165    464
 6.7215    438
 6.7265    461
 6.7315    443
 6.7365    443
 6.7415    470
 6.7465    468
 6.7515    498
 6.7565    512
 6.7615    470
 6.7665    514
 6.7715    466
 6.7765    483
 6.7815    485
 6.7865    558
 6.7915    532
 6.7965    545
 6.8015    549
 6.8065    604
 6.8115    639
 6.8165    673
 6.8215    660
 6.8265    698
 6.8315    709
 6.8366    777
 6.8416    746
 6.8466    790
 6.8516    843
 6.8566    955
 6.8616   1011
 6.8666   1091
 6.8716   1146
 6.8766   1207
 6.8816   1281
 6.8866   1445
 6.8916   1545
 6.8966   1750
 6.9016   1902
 6.9066   2078
 6.9116   2339
 6.9166   2718
 6.9216   3044
 6.9266   3451
 6.9316   3667
 6.9366   4158
 6.9416   4856
 6.9466   5243
 6.9516   5951
 6.9566   6584
 6.9617   7271
 6.9667   8065
 6.9717   8912
 6.9767   9744
 6.9817  10799
 6.9867  11528
 6.9917  12491
 6.9967  13266
 7.0017  14257
 7.0067  15182
 7.0117  16120
 7.0167  16932
 7.0217  17694
 7.0267  18405
 7.0317  18947
 7.0367  19487
 7.0417  19736
 7.0467  20558
 7.0517  20154
 7.0567  20420
 7.0617  20217
 7.0667  20190
 7.0717  20070
 7.0767  19465
 7.0817  18758
 7.0868  18217
 7.0918  17446
 7.0968  16711
 7.1018  15866
 7.1068  14926
 7.1118  13921
 7.1168  12814
 7.1218  11832
 7.1268  10987
 7.1318  10138
 7.1368   9161
 7.1418   8290
 7.1468   7415
 7.1518   6698
 7.1568   5879
 7.1618   5178
 7.1668   4678
 7.1718   3933
 7.1768   3607
 7.1818   3034
 7.1868   2696
 7.1918   2330
 7.1968   1931
 7.2018   1707
 7.2068   1495
 7.2119   1262
 7.2169   1048
 7.2219    909
 7.2269    767
 7.2319    695
 7.2369    581
 7.2419    482
 7.2469    429
 7.2519    413
 7.2569    393
 7.2619    329
 7.2669    270
 7.2719    293
 7.2769    288
 7.2819    298
 7.2869    262
 7.2919    290
 7.2969    296
 7.3019    238
 7.3069    256
 7.3119    286
 7.3169    307
 7.3219    318
 7.3269    302
 7.3319    351
  7.337    344
  7.342    332
  7.347    367
  7.352    413
  7.357    374
  7.362    411
  7.367    453
  7.372    459
  7.377    437
  7.382    546
  7.387    497
  7.392    527
  7.397    564
  7.402    581
  7.407    596
  7.412    640
  7.417    618
  7.422    647
  7.427    636
  7.432    673
  7.437    749
  7.442    716
  7.447    701
  7.452    739
  7.457    669
 7.4621    734
 7.4671    772
 7.4721    728
 7.4771    684
 7.4821    720
 7.4871    708
 7.4921    686
 7.4971    664
 7.5021    642
 7.5071    667
 7.5121    609
 7.5171    622
 7.5221    550
 7.5271    545
 7.5321    470
 7.5371    481
 7.5421    486
 7.5471    431
 7.5521    390
 7.5571    415
 7.5621    394
 7.5671    331
 7.5721    354
 7.5771    322
 7.5821    281
 7.5872    284
 7.5922    274
 7.5972    253
 7.6022    234
 7.6072    216
 7.6122    195
 7.6172    212
 7.6222    202
 7.6272    201
 7.6322    189
 7.6372    181
 7.6422    173
 7.6472    213
 7.6522    181
 7.6572    200
 7.6622    199
 7.6672    196
 7.6722    188
 7.6772    189
 7.6822    189
 7.6872    173
 7.6922    176
 7.6972    189
 7.7022    199
 7.7072    186
 7.7123    189
 7.7173    206
 7.7223    192
 7.7273    161
 7.7323    181
 7.7373    176
 7.7423    154
 7.7473    178
 7.7523    201
 7.7573    179
 7.7623    189
 7.7673    190
 7.7723    150
 7.7773    179
 7.7823    174
 7.7873    198
 7.7923    219
 7.7973    194
 7.8023    191
 7.8073    198
 7.8123    195
 7.8173    203
 7.8223    198
 7.8273    192
 7.8323    205
 7.8374    233
 7.8424    206
 7.8474    201
 7.8524    227
 7.8574    239
 7.8624    239
 7.8674    223
 7.8724    241
 7.8774    274
 7.8824    265
 7.8874    273
 7.8924    287
 7.8974    285
 7.9024    274
 7.9074    262
 7.9124    270
 7.9174    284
 7.9224    289
 7.9274    266
 7.9324    296
 7.9374    297
 7.9424    311
 7.9474    311
 7.9524    321
 7.9574    371
 7.9625    326
 7.9675    303
 7.9725    323
 7.9775    344
 7.9825    327
 7.9875    350
 7.9925    360
 7.9975    400
 8.0025    364
 8.0075    397
 8.0125    400
 8.0175    396
 8.0225    370
 8.0275    414
 8.0325    427
 8.0375    412
 8.0425    418
 8.0475    372
 8.0525    403
 8.0575    376
 8.0625    366
 8.0675    363
 8.0725    364
 8.0775    378
 8.0825    358
 8.0876    348
 8.0926    339
 8.0976    324
 8.1026    313
 8.1076    300
 8.1126    298
 8.1176    269
 8.1226    284
 8.1276    256
 8.1326    255
 8.1376    225
 8.1426    214
 8.1476    223
 8.1526    248
 8.1576    208
 8.1626    194
 8.1676    219
 8.1726    206
 8.1776    177
 8.1826    188
 8.1876    217
 8.1926    223
 8.1976    204
 8.2026    204
 8.2076    186
 8.2127    220
 8.2177    216
 8.2227    191
 8.2277    209
 8.2327    231
 8.2377    228
 8.2427    221
 8.2477    219
 8.2527    190
 8.2577    233
 8.2627    223
 8.2677    227
 8.2727    217
 8.2777    217
 8.2827    220
 8.2877    197
 8.2927    221
 8.2977    205
 8.3027    217
 8.3077    209
 8.3127    208
 8.3177    223
 8.3227    236
 8.3277    224
 8.3327    197
 8.3378    193
 8.3428    227
 8.3478    213
 8.3528    188
 8.3578    202
 8.3628    216
 8.3678    209
 8.3728    192
 8.3778    212
 8.3828    177
 8.3878    192
 8.3928    215
 8.3978    236
 8.4028    232
 8.4078    200
 8.4128    231
 8.4178    222
 8.4228    236
 8.4278    244
 8.4328    251
 8.4378    257
 8.4428    293
 8.4478    325
 8.4528    296
 8.4578    367
 8.4629    420
 8.4679    411
 8.4729    494
 8.4779    483
 8.4829    541
 8.4879    620
 8.4929    677
 8.4979    699
 8.5029    799
 8.5079    869
 8.5129    994
 8.5179   1109
 8.5229   1220
 8.5279   1344
 8.5329   1440
 8.5379   1549
 8.5429   1730
 8.5479   1894
 8.5529   1993
 8.5579   2160
 8.5629   2338
 8.5679   2437
 8.5729   2690
 8.5779   2917
 8.5829   2878
  8.588   3096
  8.593   3220
  8.598   3400
  8.603   3530
  8.608   3574
  8.613   3599
  8.618   3727
  8.623   3737
  8.628   3787
  8.633   3793
  8.638   3698
  8.643   3635
  8.648   3653
  8.653   3585
  8.658   3545
  8.663   3368
  8.668   3169
  8.673   3097
  8.678   3005
  8.683   2867
  8.688   2787
  8.693   2568
  8.698   2390
  8.703   2211
  8.708   2081
 8.7131   1902
 8.7181   1772
 8.7231   1676
 8.7281   1528
 8.7331   1411
 8.7381   1240
 8.7431   1188
 8.7481   1106
 8.7531    907
 8.7581    899
 8.7631    827
 8.7681    787
 8.7731    710
 8.7781    629
 8.7831    595
 8.7881    575
 8.7931    525
 8.7981    496
 8.8031    481
 8.8081    460
 8.8131    419
 8.8181    412
 8.8231    429
 8.8281    406
 8.8331    409
 8.8382    398
 8.8432    422
 8.8482    429
 8.8532    407
 8.8582    447
 8.8632    434
 8.8682    484
 8.8732    419
 8.8782    458
 8.8832    451
 8.8882    461
 8.8932    429
 8.8982    492
 8.9032    490
 8.9082    485
 8.9132    497
 8.9182    504
 8.9232    542
 8.9282    536
 8.9332    544
 8.9382    593
 8.9432    583
 8.9482    572
 8.9532    610
 8.9582    661
 8.9633    616
 8.9683    636
 8.9733    659
 8.9783    695
 8.9833    774
 8.9883    713
 8.9933    805
 8.9983    849
 9.0033    956
 9.0083   1019
 9.0133   1121
 9.0183   1139
 9.0233   1301
 9.0283   1549
 9.0333   1659
 9.0383   1739
 9.0433   2088
 9.0483   2372
 9.0533   2641
 9.0583   3106
 9.0633   3588
 9.0683   4055
 9.0733   4609
 9.0783   5388
 9.0833   6002
 9.0884   7006
 9.0934   7968
 9.0984   9115
 9.1034  10386
 9.1084  11759
 9.1134  13321
 9.1184  15003
 9.1234  16933
 9.1284  18848
 9.1334  20778
 9.1384  23306
 9.1434  25706
 9.1484  28175
 9.1534  30990
 9.1584  33642
 9.1634  36222
 9.1684  39084
 9.1734  41827
 9.1784  45100
 9.1834  48040
 9.1884  50340
 9.1934  52978
 9.1984  55456
 9.2034  58273
 9.2084  59918
 9.2135  62006
 9.2185  63003
 9.2235  65143
 9.2285  65869
 9.2335  66696
 9.2385  66929
 9.2435  66682
 9.2485  67049
 9.2535  66117
 9.2585  65359
 9.2635  63443
 9.2685  62571
 9.2735  60713
 9.2785  58197
 9.2835  56172
 9.2885  53581
 9.2935  51038
 9.2985  48148
 9.3035  45559
 9.3085  42563
 9.3135  39963
 9.3185  36886
 9.3235  33599
 9.3285  31165
 9.3335  28734
 9.3386  25740
 9.3436  23629
 9.3486  21192
 9.3536  19047
 9.3586  16958
 9.3636  14962
 9.3686  13379
 9.3736  11493
 9.3786  10361
 9.3836   9055
 9.3886   7787
 9.3936   6929
 9.3986   5774
 9.4036   4973
 9.4086   4378
 9.4136   3660
 9.4186   3212
 9.4236   2766
 9.4286   2263
 9.4336   1985
 9.4386   1668
 9.4436   1525
 9.4486   1316
 9.4536   1134
 9.4586   1020
 9.4637    869
 9.4687    803
 9.4737    734
 9.4787    722
 9.4837    730
 9.4887    645
 9.4937    630
 9.4987    615
 9.5037    577
 9.5087    623
 9.5137    615
 9.5187    650
 9.5237    657
 9.5287    651
 9.5337    635
 9.5387    662
 9.5437    669
 9.5487    700
 9.5537    651
 9.5587    718
 9.5637    678
 9.5687    655
 9.5737    655
 9.5787    679
 9.5837    646
 9.5888    671
 9.5938    644
 9.5988    634
 9.6038    643
 9.6088    621
 9.6138    547
 9.6188    569
 9.6238    519
 9.6288    511
 9.6338    519
 9.6388    498
 9.6438    476
 9.6488    439
 9.6538    464
 9.6588    422
 9.6638    386
 9.6688    374
 9.6738    349
 9.6788    360
 9.6838    301
 9.6888    285
 9.6938    272
 9.6988    273
 9.7038    292
 9.7088    227
 9.7139    243
 9.7189    213
 9.7239    253
 9.7289    193
 9.7339    214
 9.7389    232
 9.7439    222
 9.7489    201
 9.7539    213
 9.7589    210
 9.7639    186
 9.7689    184
 9.7739    172
 9.7789    188
 9.7839    183
 9.7889    203
 9.7939    191
 9.7989    212
 9.8039    219
 9.8089    214
 9.8139    199
 9.8189    223
 9.8239    224
 9.8289    215
 9.8339    220
  9.839    206
  9.844    211
  9.849    242
  9.854    226
  9.859    263
  9.864    241
  9.869    252
  9.874    246
  9.879    256
  9.884    225
  9.889    258
  9.894    283
  9.899    260
  9.904    258
  9.909    260
  9.914    286
  9.919    270
  9.924    325
  9.929    316
  9.934    316
  9.939    326
  9.944    318
  9.949    321
  9.954    340
  9.959    369
 9.9641    364
 9.9691    361
 9.9741    386
 9.9791    380
 9.9841    388
 9.9891    374
 9.9941    438
 9.9991    443
10.0041    474
10.0091    487
10.0141    516
10.0191    526
10.0241    539
10.0291    577
10.0341    593
10.0391    658
10.0441    658
10.0491    724
10.0541    748
10.0591    784
10.0641    843
10.0691    917
10.0741    933
10.0791   1020
10.0841   1109
10.0892   1199
10.0942   1303
10.0992   1388
10.1042   1487
10.1092   1530
10.1142   1702
10.1192   1935
10.1242   2220
10.1292   2218
10.1342   2474
10.1392   2759
10.1442   3042
10.1492   3289
10.1542   3569
10.1592   3956
10.1642   4100
10.1692   4710
10.1742   4990
10.1792   5171
10.1842   5540
10.1892   5910
10.1942   6325
10.1992   6657
10.2042   7005
10.2092   7335
10.2143   7864
10.2193   8022
10.2243   8368
10.2293   8515
10.2343   8699
10.2393   8922
10.2443   9101
10.2493   9141
10.2543   9223
10.2593   9313
10.2643   9408
10.2693   9280
10.2743   9069
10.2793   9179
10.2843   9104
10.2893   8679
10.2943   8228
10.2993   8075
10.3043   7729
10.3093   7568
10.3143   7228
10.3193   6785
10.3243   6442
10.3293   6149
10.3343   5627
10.3394   5342
10.3444   5011
10.3494   4685
10.3544   4153
10.3594   4022
10.3644   3626
10.3694   3320
10.3744   3067
10.3794   2793
10.3844   2524
10.3894   2302
10.3944   2161
10.3994   1849
10.4044   1638
10.4094   1487
10.4144   1441
10.4194   1360
10.4244   1138
10.4294   1078
10.4344   1044
10.4394    907
10.4444    845
10.4494    797
10.4544    777
10.4594    772
10.4645    721
10.4695    717
10.4745    685
10.4795    686
10.4845    658
10.4895    644
10.4945    647
10.4995    631
10.5045    672
10.5095    673
10.5145    719
10.5195    676
10.5245    642
10.5295    628
10.5345    641
10.5395    641
10.5445    631
10.5495    634
10.5545    611
10.5595    630
10.5645    598
10.5695    558
10.5745    570
10.5795    528
10.5845    559
10.5896    534
10.5946    473
10.5996    485
10.6046    466
10.6096    403
10.6146    408
10.6196    435
10.6246    364
10.6296    342
10.6346    338
10.6396    308
10.6446    290
10.6496    244
10.6546    262
10.6596    261
10.6646    252
10.6696    201
10.6746    198
10.6796    208
10.6846    196
10.6896    151
10.6946    157
10.6996    132
10.7046    142
10.7096    143
10.7147    155
10.7197    119
10.7247    118
10.7297    133
10.7347    115
10.7397    115
10.7447    116
10.7497    115
10.7547    108
10.7597    109
10.7647    111
10.7697    111
10.7747    120
10.7797    100
10.7847     93
10.7897    113
10.7947    101
10.7997    108
10.8047    110
10.8097    106
10.8147     92
10.8197     87
10.8247     89
10.8297     89
10.8347     78
10.8398     87
10.8448     89
10.8498     85
10.8548     82
10.8598     73
10.8648    108
10.8698     79
10.8748     90
10.8798     88
10.8848     81
10.8898     66
10.8948     97
10.8998     91
10.9048     64
10.9098     75
10.9148     78
10.9198     66
10.9248     76
10.9298     67
10.9348     71
10.9398     91
10.9448     88
10.9498     76
10.9548     61
10.9598     83
10.9649     73
10.9699     82
10.9749     47
10.9799     71
10.9849     73
10.9899     57
10.9949     73
10.9999     74
11.0049     72
11.0099     65
11.0149     55
11.0199     49
11.0249     74
11.0299     76
11.0349     66
11.0399     68
11.0449     68
11.0499     74
11.0549     77
11.0599     67
11.0649     58
11.0699     69
11.0749     67
11.0799     85
11.0849     58
  11.09     73
 11.095     61
   11.1     62
 11.105     78
  11.11     62
 11.115     75
  11.12     50
 11.125     64
  11.13     59
 11.135     75
  11.14     70
 11.145     74
  11.15     73
 11.155     78
  11.16     67
 11.165     57
  11.17     73
 11.175     55
  11.18     75
 11.185     64
  11.19     69
 11.195     66
   11.2     64
 11.205     70
  11.21     68
11.2151     71
11.2201     63
11.2251     57
11.2301     80
11.2351     76
11.2401     61
11.2451     64
11.2501     70
11.2551     59
11.2601     63
11.2651     77
11.2701     64
11.2751     67
11.2801     67
11.2851     81
11.2901     68
11.2951     57
11.3001     66
11.3051     67
11.3101     74
11.3151     48
11.3201     68
11.3251     57
11.3301     76
11.3351     58
11.3402     65
11.3452     69
11.3502     56
11.3552     58
11.3602     71
11.3652     68
11.3702     68
11.3752     73
11.3802     60
11.3852     63
11.3902     73
11.3952     63
11.4002     65
11.4052     58
11.4102     64
11.4152     59
11.4202     80
11.4252     58
11.4302     50
11.4352     74
11.4402     68
11.4452     53
11.4502     51
11.4552     59
11.4602     68
11.4653     48
11.4703     75
11.4753     54
11.4803     64
11.4853     54
11.4903     62
11.4953     47
11.5003     67
11.5053     48
11.5103     54
11.5153     54
11.5203     50
11.5253     55
11.5303     62
11.5353     52
11.5403     43
11.5453     66
11.5503     86
11.5553     52
11.5603     74
11.5653     64
11.5703     69
11.5753     61
11.5803     92
11.5853     76
11.5904     74
11.5954     65
11.6004     69
11.6054     78
11.6104     63
11.6154     70
11.6204     85
11.6254     77
11.6304     80
11.6354     70
11.6404     91
11.6454     75
11.6504     80
11.6554     83
11.6604     91
11.6654     83
11.6704     91
11.6754     88
11.6804     95
11.6854     86
11.6904     76
11.6954     99
11.7004    100
11.7054     97
11.7104     93
11.7155     88
11.7205     93
11.7255    106
11.7305     99
11.7355    100
11.7405    103
11.7455     81
11.7505    100
11.7555     92
11.7605     80
11.7655     92
11.7705    114
11.7755     82
11.7805    102
11.7855     78
11.7905     97
11.7955    102
11.8005     85
11.8055     84
11.8105     81
11.8155     92
11.8205     82
11.8255     78
11.8305     85
11.8355     76
11.8406     89
11.8456     77
11.8506     78
11.8556    108
11.8606     76
11.8656     57
11.8706     72
11.8756     75
11.8806     81
11.8856     81
11.8906     77
11.8956     92
11.9006     79
11.9056     93
11.9106     66
11.9156     83
11.9206     80
11.9256     56
11.9306     83
11.9356     76
11.9406     85
11.9456     76
11.9506     54
11.9556     67
11.9606     63
11.9657     79
11.9707     74
11.9757     77
11.9807     75
11.9857     85
11.9907     68
11.9957     75
12.0007     72
12.0057     80
12.0107     57
12.0157     66
12.0207     55
12.0257     72
12.0307     76
12.0357     60
12.0407     68
12.0457     83
12.0507     64
12.0557     73
12.0607     65
12.0657     63
12.0707     69
12.0757     55
12.0807     71
12.0857     64
12.0908     55
12.0958     66
12.1008     60
12.1058     68
12.1108     74
12.1158     78
12.1208     69
12.1258     76
12.1308     62
12.1358     73
12.1408     78
12.1458     86
12.1508     89
12.1558     89
12.1608     76
12.1658     80
12.1708     80
12.1758     71
12.1808     82
12.1858     82
12.1908     84
12.1958     81
12.2008     77
12.2058     89
12.2108     80
12.2159     84
12.2209     94
12.2259     82
12.2309    104
12.2359     88
12.2409    100
12.2459    101
12.2509     76
12.2559     91
12.2609    102
12.2659    118
12.2709     93
12.2759     92
12.2809    101
12.2859    111
12.2909    108
12.2959    100
12.3009    109
12.3059    116
12.3109    112
12.3159    105
12.3209    110
12.3259    104
12.3309    103
12.3359    105
 12.341     97
 12.346    107
 12.351    113
 12.356    118
 12.361    104
 12.366    115
 12.371    109
 12.376     95
 12.381    105
 12.386    112
 12.391    101
 12.396    119
 12.401     90
 12.406    123
 12.411    108
 12.416    112
 12.421    105
 12.426    112
 12.431    136
 12.436    117
 12.441    106
 12.446    125
 12.451    132
 12.456    130
 12.461    152
12.4661    156
12.4711    152
12.4761    167
12.4811    172
12.4861    180
12.4911    167
12.4961    172
12.5011    193
12.5061    180
12.5111    202
12.5161    216
12.5211    213
12.5261    250
12.5311    205
12.5361    239
12.5411    270
12.5461    271
12.5511    283
12.5561    263
12.5611    268
12.5661    302
12.5711    311
12.5761    354
12.5811    334
12.5861    361
12.5912    328
12.5962    328
12.6012    312
12.6062    348
12.6112    373
12.6162    344
12.6212    335
12.6262    347
12.6312    379
12.6362    319
12.6412    312
12.6462    323
12.6512    345
12.6562    328
12.6612    317
12.6662    310
12.6712    303
12.6762    330
12.6812    292
12.6862    318
12.6912    316
12.6962    296
12.7012    302
12.7062    331
12.7112    271
12.7163    307
12.7213    276
12.7263    245
12.7313    255
12.7363    260
12.7413    269
12.7463    271
12.7513    257
12.7563    267
12.7613    261
12.7663    246
12.7713    247
12.7763    250
12.7813    277
12.7863    263
12.7913    261
12.7963    280
12.8013    267
12.8063    264
12.8113    275
12.8163    302
12.8213    248
12.8263    275
12.8313    263
12.8363    287
12.8414    257
12.8464    268
12.8514    242
12.8564    264
12.8614    285
12.8664    321
12.8714    306
12.8764    284
12.8814    288
12.8864    296
12.8914    281
12.8964    275
12.9014    275
12.9064    296
12.9114    306
12.9164    276
12.9214    265
12.9264    275
12.9314    294
12.9364    287
12.9414    280
12.9464    307
12.9514    291
12.9564    265
12.9614    257
12.9665    245
12.9715    256
12.9765    250
12.9815    264
12.9865    260
12.9915    246
12.9965    237
13.0015    255
13.0065    236
13.0115    216
13.0165    234
13.0215    221
13.0265    211
13.0315    192
13.0365    199
13.0415    191
13.0465    196
13.0515    179
13.0565    151
13.0615    180
13.0665    163
13.0715    167
13.0765    171
13.0815    147
13.0865    156
13.0916    148
13.0966    172
13.1016    151
13.1066    157
13.1116    140
13.1166    159
13.1216    168
13.1266    162
13.1316    180
13.1366    174
13.1416    171
13.1466    205
13.1516    167
13.1566    179
13.1616    185
13.1666    226
13.1716    223
13.1766    236
13.1816    221
13.1866    276
13.1916    256
13.1966    290
13.2016    302
13.2066    313
13.2116    371
13.2167    306
13.2217    351
13.2267    422
13.2317    413
13.2367    480
13.2417    474
13.2467    535
13.2517    568
13.2567    582
13.2617    614
13.2667    587
13.2717    706
13.2767    656
13.2817    779
13.2867    742
13.2917    809
13.2967    826
13.3017    803
13.3067    883
13.3117    956
13.3167    959
13.3217    964
13.3267   1011
13.3317   1045
13.3367   1057
13.3418   1055
13.3468   1030
13.3518   1075
13.3568   1128
13.3618   1127
13.3668   1126
13.3718   1151
13.3768   1151
13.3818   1103
13.3868   1087
13.3918   1057
13.3968   1073
13.4018   1103
13.4068   1025
13.4118   1062
13.4168    999
13.4218   1010
13.4268    939
13.4318    916
13.4368    873
13.4418    861
13.4468    796
13.4518    786
13.4568    739
13.4618    740
13.4669    691
13.4719    671
13.4769    642
13.4819    608
13.4869    584
13.4919    535
13.4969    492
13.5019    496
13.5069    464
13.5119    422
13.5169    415
13.5219    404
13.5269    362
13.5319    342
13.5369    341
13.5419    322
13.5469    316
13.5519    295
13.5569    306
13.5619    292
13.5669    281
13.5719    286
13.5769    270
13.5819    268
13.5869    251
 13.592    274
 13.597    238
 13.602    241
 13.607    249
 13.612    220
 13.617    242
 13.622    206
 13.627    225
 13.632    242
 13.637    205
 13.642    230
 13.647    197
 13.652    212
 13.657    240
 13.662    197
 13.667    210
 13.672    207
 13.677    219
 13.682    231
 13.687    204
 13.692    208
 13.697    210
 13.702    221
 13.707    218
 13.712    226
13.7171    197
13.7221    197
13.7271    199
13.7321    228
13.7371    204
13.7421    206
13.7471    208
13.7521    192
13.7571    217
13.7621    225
13.7671    217
13.7721    219
13.7771    215
13.7821    220
13.7871    254
13.7921    225
13.7971    230
13.8021    217
13.8071    246
13.8121    216
13.8171    254
13.8221    245
13.8271    257
13.8321    266
13.8371    280
13.8422    313
13.8472    289
13.8522    308
13.8572    338
13.8622    362
13.8672    373
13.8722    403
13.8772    412
13.8822    444
13.8872    457
13.8922    496
13.8972    552
13.9022    580
13.9072    662
13.9122    705
13.9172    807
13.9222    847
13.9272   1019
13.9322   1073
13.9372   1149
13.9422   1238
13.9472   1380
13.9522   1590
13.9572   1718
13.9622   1822
13.9673   2110
13.9723   2261
13.9773   2542
13.9823   2639
13.9873   2817
13.9923   3202
13.9973   3382
14.0023   3563
14.0073   3934
14.0123   4146
14.0173   4578
14.0223   4797
14.0273   5164
14.0323   5443
14.0373   5840
14.0423   6185
14.0473   6460
14.0523   6920
14.0573   6860
14.0623   7389
14.0673   7834
14.0723   8044
14.0773   8516
14.0823   8709
14.0873   9118
14.0924   9302
14.0974   9429
14.1024   9717
14.1074   9735
14.1124   9966
14.1174  10290
14.1224  10318
14.1274  10441
14.1324  10402
14.1374  10604
14.1424  10429
14.1474  10271
14.1524  10241
14.1574  10118
14.1624  10053
14.1674   9780
14.1724   9488
14.1774   9397
14.1824   9131
14.1874   8814
14.1924   8565
14.1974   8237
14.2024   8069
14.2074   7789
14.2124   7401
14.2175   6782
14.2225   6640
14.2275   6440
14.2325   5860
14.2375   5570
14.2425   5257
14.2475   4782
14.2525   4683
14.2575   4228
14.2625   3857
14.2675   3639
14.2725   3173
14.2775   3082
14.2825   2923
14.2875   2523
14.2925   2267
14.2975   2203
14.3025   2022
14.3075   1761
14.3125   1641
14.3175   1571
14.3225   1377
14.3275   1190
14.3325   1112
14.3375    969
14.3426    901
14.3476    798
14.3526    724
14.3576    691
14.3626    595
14.3676    596
14.3726    529
14.3776    478
14.3826    385
14.3876    365
14.3926    396
14.3976    369
14.4026    346
14.4076    331
14.4126    328
14.4176    306
14.4226    336
14.4276    315
14.4326    295
14.4376    298
14.4426    252
14.4476    278
14.4526    268
14.4576    301
14.4626    241
14.4677    276
14.4727    261
14.4777    264
14.4827    289
14.4877    263
14.4927    249
14.4977    285
14.5027    271
14.5077    295
14.5127    280
14.5177    272
14.5227    311
14.5277    273
14.5327    259
14.5377    274
14.5427    256
14.5477    298
14.5527    295
14.5577    282
14.5627    269
14.5677    312
14.5727    297
14.5777    317
14.5827    278
14.5877    311
14.5928    294
14.5978    310
14.6028    285
14.6078    294
14.6128    308
14.6178    310
14.6228    333
14.6278    326
14.6328    335
14.6378    324
14.6428    357
14.6478    316
14.6528    334
14.6578    347
14.6628    343
14.6678    351
14.6728    379
14.6778    385
14.6828    348
14.6878    371
14.6928    386
14.6978    377
14.7028    362
14.7078    376
14.7128    367
14.7179    438
14.7229    451
14.7279    433
14.7329    416
14.7379    461
14.7429    417
14.7479    439
14.7529    470
14.7579    465
14.7629    509
14.7679    507
14.7729    504
14.7779    531
14.7829    525
14.7879    507
14.7929    601
14.7979    617
14.8029    617
14.8079    689
14.8129    625
14.8179    689
14.8229    716
14.8279    722
14.8329    730
14.8379    759
 14.843    768
 14.848    801
 14.853    877
 14.858    807
 14.863    820
 14.868    887
 14.873    867
 14.878    913
 14.883    927
 14.888    963
 14.893    907
 14.898    888
 14.903   1054
 14.908    925
 14.913   1046
 14.918   1037
 14.923   1002
 14.928   1013
 14.933   1032
 14.938   1024
 14.943   1055
 14.948   1013
 14.953    996
 14.958   1015
 14.963   1020
14.9681    974
14.9731    949
14.9781    972
14.9831    937
14.9881    915
14.9931    951
14.9981    923
15.0031    962
15.0081    907
15.0131    881
15.0181    920
15.0231    837
15.0281    896
15.0331    911
15.0381    825
15.0431    849
15.0481    802
15.0531    766
15.0581    731
15.0631    826
15.0681    714
15.0731    747
15.0781    782
15.0831    689
15.0881    731
15.0932    737
15.0982    698
15.1032    679
15.1082    727
15.1132    690
15.1182    706
15.1232    744
15.1282    672
15.1332    714
15.1382    696
15.1432    718
15.1482    663
15.1532    679
15.1582    697
15.1632    682
15.1682    701
15.1732    661
15.1782    658
15.1832    693
15.1882    746
15.1932    679
15.1982    715
15.2032    671
15.2082    763
15.2132    702
15.2183    740
15.2233    734
15.2283    715
15.2333    808
15.2383    801
15.2433    736
15.2483    776
15.2533    784
15.2583    682
15.2633    752
15.2683    837
15.2733    762
15.2783    747
15.2833    802
15.2883    816
15.2933    820
15.2983    771
15.3033    842
15.3083    865
15.3133    832
15.3183    804
15.3233    860
15.3283    844
15.3333    854
15.3383    912
15.3434    878
15.3484    887
15.3534    900
15.3584    926
15.3634    909
15.3684    889
15.3734    908
15.3784    902
15.3834    962
15.3884    937
15.3934    977
15.3984   1002
15.4034    932
15.4084    959
15.4134   1010
15.4184   1064
15.4234   1013
15.4284   1074
15.4334   1040
15.4384    986
15.4434   1060
15.4484   1070
15.4534   1066
15.4584   1087
15.4634   1074
15.4685   1106
15.4735   1143
15.4785   1121
15.4835   1125
15.4885   1170
15.4935   1173
15.4985   1178
15.5035   1198
15.5085   1145
15.5135   1236
15.5185   1258
15.5235   1314
15.5285   1222
15.5335   1343
15.5385   1295
15.5435   1398
15.5485   1368
15.5535   1435
15.5585   1305
15.5635   1435
15.5685   1417
15.5735   1506
15.5785   1502
15.5835   1508
15.5885   1488
15.5936   1542
15.5986   1487
15.6036   1599
15.6086   1683
15.6136   1728
15.6186   1683
15.6236   1693
15.6286   1731
15.6336   1848
15.6386   1806
15.6436   1869
15.6486   1970
15.6536   1908
15.6586   1995
15.6636   2027
15.6686   2116
15.6736   2114
15.6786   2199
15.6836   2175
15.6886   2295
15.6936   2285
15.6986   2305
15.7036   2441
15.7086   2440
15.7136   2515
15.7187   2632
15.7237   2649
15.7287   2717
15.7337   2820
15.7387   2851
15.7437   2886
15.7487   2964
15.7537   2989
15.7587   3114
15.7637   3136
15.7687   3146
15.7737   3200
15.7787   3189
15.7837   3232
15.7887   3288
15.7937   3410
15.7987   3416
15.8037   3410
15.8087   3358
15.8137   3404
15.8187   3469
15.8237   3484
15.8287   3463
15.8337   3483
15.8387   3482
15.8438   3538
15.8488   3493
15.8538   3534
15.8588   3523
15.8638   3493
15.8688   3393
15.8738   3297
15.8788   3381
15.8838   3303
15.8888   3330
15.8938   3310
15.8988   3226
15.9038   3246
15.9088   3153
15.9138   3155
15.9188   3217
15.9238   3086
15.9288   3179
15.9338   3077
15.9388   2930
15.9438   2998
15.9488   3005
15.9538   3059
15.9588   2988
15.9638   3082
15.9689   3051
15.9739   3011
15.9789   3055
15.9839   3004
15.9889   2927
15.9939   3024
15.9989   2922
16.0039   3038
16.0089   3027
16.0139   3103
16.0189   3076
16.0239   3079
16.0289   3181
16.0339   3187
16.0389   3258
16.0439   3191
16.0489   3260
16.0539   3320
16.0589   3276
16.0639   3356
16.0689   3336
16.0739   3387
16.0789   3555
16.0839   3566
16.0889   3583
 16.094   3596
 16.099   3622
 16.104   3655
 16.109   3767
 16.114   3666
 16.119   3811
 16.124   3856
 16.129   3968
 16.134   3938
 16.139   3957
 16.144   4021
 16.149   4135
 16.154   4038
 16.159   4326
 16.164   4212
 16.169   4325
 16.174   4320
 16.179   4346
 16.184   4578
 16.189   4534
 16.194   4701
 16.199   4692
 16.204   4890
 16.209   4908
 16.214   4890
16.2191   4916
16.2241   5032
16.2291   5176
16.2341   5337
16.2391   5312
16.2441   5534
16.2491   5526
16.2541   5534
16.2591   5729
16.2641   5884
16.2691   5862
16.2741   6066
16.2791   6148
16.2841   6228
16.2891   6279
16.2941   6530
16.2991   6543
16.3041   6761
16.3091   6787
16.3141   6858
16.3191   7028
16.3241   7199
16.3291   7398
16.3341   7422
16.3391   7466
16.3442   7767
16.3492   7781
16.3542   8241
16.3592   8142
16.3642   8276
16.3692   8467
16.3742   8637
16.3792   8803
16.3842   8959
16.3892   9090
16.3942   9281
16.3992   9529
16.4042   9475
16.4092   9761
16.4142  10155
16.4192  10150
16.4242  10513
16.4292  10639
16.4342  10850
16.4392  10891
16.4442  11242
16.4492  11377
16.4542  11660
16.4592  11815
16.4642  12198
16.4693  12354
16.4743  12458
16.4793  12728
16.4843  12928
16.4893  13210
16.4943  13375
16.4993  13747
16.5043  13805
16.5093  14050
16.5143  14252
16.5193  14325
16.5243  15054
16.5293  14805
16.5343  15355
16.5393  15420
16.5443  15844
16.5493  16018
16.5543  16045
16.5593  16500
16.5643  16913
16.5693  17210
16.5743  17170
16.5793  17627
16.5843  17777
16.5893  18121
16.5944  18428
16.5994  18668
16.6044  18777
16.6094  18796
16.6144  19340
16.6194  19810
16.6244  19905
16.6294  20142
16.6344  20402
16.6394  20870
16.6444  21308
16.6494  21001
16.6544  21525
16.6594  21722
16.6644  22018
16.6694  22262
16.6744  22446
16.6794  23050
16.6844  23330
16.6894  23318
16.6944  23717
16.6994  23910
16.7044  24382
16.7094  24729
16.7144  25079
16.7195  25050
16.7245  25149
16.7295  25567
16.7345  25968
16.7395  26292
16.7445  26196
16.7495  26447
16.7545  26731
16.7595  27392
16.7645  26798
16.7695  27500
16.7745  27676
16.7795  27868
16.7845  27963
16.7895  28268
16.7945  28855
16.7995  29038
16.8045  28985
16.8095  29407
16.8145  29774
16.8195  29895
16.8245  30005
16.8295  30017
16.8345  30512
16.8395  30747
16.8446  30904
16.8496  31648
16.8546  31200
16.8596  31638
16.8646  32113
16.8696  32241
16.8746  32006
16.8796  32417
16.8846  32809
16.8896  32947
16.8946  33339
16.8996  33203
16.9046  33353
16.9096  33874
16.9146  33859
16.9196  34397
16.9246  34349
16.9296  34601
16.9346  34528
16.9396  34747
16.9446  34910
16.9496  35419
16.9546  35538
16.9596  35607
16.9646  35750
16.9697  36028
16.9747  36011
16.9797  36458
16.9847  36551
16.9897  36953
16.9947  36755
16.9997  36671
17.0047  37474
17.0097  37106
17.0147  37438
17.0197  37835
17.0247  37745
17.0297  37866
17.0347  38292
17.0397  38298
17.0447  38417
17.0497  39014
17.0547  38582
17.0597  38725
17.0647  39161
17.0697  39112
17.0747  39308
17.0797  38890
17.0847  39422
17.0897  39520
17.0948  39855
17.0998  40029
17.1048  39885
17.1098  40069
17.1148  40036
17.1198  40381
17.1248  40861
17.1298  40657
17.1348  41129
17.1398  40983
17.1448  41462
17.1498  41140
17.1548  41663
17.1598  41876
17.1648  42137
17.1698  42214
17.1748  42227
17.1798  42732
17.1848  43176
17.1898  43477
17.1948  43622
17.1998  44178
17.2048  44447
17.2098  44959
17.2148  45669
17.2199  45924
17.2249  46344
17.2299  47512
17.2349  47756
17.2399  48491
17.2449  49149
17.2499  49802
17.2549  51041
17.2599  51928
17.2649  52789
17.2699  53837
17.2749  54883
17.2799  55938
17.2849  57228
17.2899  58286
17.2949  59744
17.2999  60824
17.3049  62074
17.3099  62531
17.3149  63802
17.3199  65707
17.3249  66559
17.3299  67994
17.3349  69274
17.3399  70749
 17.345  71755
  17.35  72824
 17.355  73940
  17.36  75494
 17.365  76587
  17.37  77327
 17.375  78609
  17.38  79354
 17.385  80229
  17.39  81485
 17.395  81783
   17.4  82558
 17.405  82651
  17.41  83227
 17.415  83155
  17.42  83659
 17.425  83528
  17.43  83894
 17.435  83002
  17.44  82609
 17.445  81816
  17.45  81162
 17.455  79792
  17.46  78887
 17.465  78568
17.4701  77191
17.4751  75527
17.4801  73965
17.4851  72305
17.4901  70483
17.4951  68989
17.5001  66859
17.5051  65246
17.5101  62693
17.5151  60814
17.5201  58349
17.5251  56546
17.5301  53513
17.5351  51490
17.5401  49052
17.5451  46416
17.5501  44351
17.5551  42411
17.5601  40078
17.5651  37541
17.5701  35302
17.5751  33390
17.5801  31195
17.5851  29521
17.5901  27722
17.5952  25768
17.6002  23828
17.6052  22385
17.6102  20848
17.6152  19053
17.6202  17543
17.6252  16366
17.6302  14848
17.6352  13763
17.6402  12807
17.6452  11649
17.6502  10868
17.6552  10215
17.6602   9261
17.6652   8548
17.6702   7915
17.6752   7191
17.6802   6680
17.6852   6202
17.6902   5856
17.6952   5246
17.7002   4882
17.7052   4681
17.7102   4419
17.7152   3941
17.7203   3822
17.7253   3591
17.7303   3367
17.7353   3169
17.7403   3156
17.7453   2954
17.7503   2833
17.7553   2757
17.7603   2510
17.7653   2499
17.7703   2392
17.7753   2303
17.7803   2198
17.7853   2249
17.7903   2175
17.7953   2114
17.8003   2080
17.8053   2047
17.8103   2000
17.8153   1878
17.8203   1809
17.8253   1854
17.8303   1807
17.8353   1808
17.8403   1763
17.8454   1663
17.8504   1595
17.8554   1680
17.8604   1512
17.8654   1645
17.8704   1503
17.8754   1488
17.8804   1494
17.8854   1385
17.8904   1451
17.8954   1427
17.9004   1420
17.9054   1370
17.9104   1288
17.9154   1299
17.9204   1270
17.9254   1213
17.9304   1242
17.9354   1146
17.9404   1169
17.9454   1151
17.9504   1146
17.9554   1127
17.9604   1121
17.9654   1100
17.9705    987
17.9755   1034
17.9805   1057
17.9855    966
17.9905    952
17.9955    927
18.0005    915
18.0055    938
18.0105    901
18.0155    886
18.0205    866
18.0255    842
18.0305    884
18.0355    823
18.0405    786
18.0455    758
18.0505    784
18.0555    749
18.0605    745
18.0655    689
18.0705    720
18.0755    671
18.0805    709
18.0855    674
18.0905    671
18.0956    670
18.1006    583
18.1056    652
18.1106    589
18.1156    604
18.1206    543
18.1256    589
18.1306    538
18.1356    552
18.1406    499
18.1456    522
18.1506    519
18.1556    479
18.1606    487
18.1656    510
18.1706    438
18.1756    463
18.1806    423
18.1856    417
18.1906    438
18.1956    431
18.2006    421
18.2056    422
18.2106    381
18.2156    363
18.2207    387
18.2257    415
18.2307    394
18.2357    336
18.2407    335
18.2457    345
18.2507    307
18.2557    371
18.2607    330
18.2657    340
18.2707    299
18.2757    305
18.2807    302
18.2857    300
18.2907    285
18.2957    268
18.3007    262
18.3057    256
18.3107    267
18.3157    263
18.3207    267
18.3257    237
18.3307    262
18.3357    256
18.3407    214
18.3458    217
18.3508    258
18.3558    240
18.3608    217
18.3658    219
18.3708    219
18.3758    215
18.3808    223
18.3858    210
18.3908    228
18.3958    216
18.4008    190
18.4058    170
18.4108    195
18.4158    203
18.4208    183
18.4258    171
18.4308    181
18.4358    189
18.4408    169
18.4458    186
18.4508    164
18.4558    185
18.4608    170
18.4658    162
18.4709    175
18.4759    163
18.4809    168
18.4859    158
18.4909    165
18.4959    141
18.5009    152
18.5059    142
18.5109    125
18.5159    144
18.5209    144
18.5259    130
18.5309    142
18.5359    131
18.5409    153
18.5459    118
18.5509    132
18.5559    132
18.5609    123
18.5659    134
18.5709    113
18.5759    106
18.5809    113
18.5859     98
18.5909    126
 18.596    127
 18.601     92
 18.606     93
 18.611    107
 18.616    106
 18.621    101
 18.626     95
 18.631     93
 18.636     97
 18.641    101
 18.646     98
 18.651     87
 18.656     96
 18.661     99
 18.666    110
 18.671     77
 18.676     76
 18.681     89
 18.686     87
 18.691     91
 18.696     81
 18.701     77
 18.706     82
 18.711     76
 18.716     95
18.7211     68
18.7261     83
18.7311     94
18.7361     72
18.7411     86
18.7461     92
18.7511     86
18.7561     85
18.7611     67
18.7661     64
18.7711     65
18.7761     82
18.7811     74
18.7861     68
18.7911     78
18.7961     82
18.8011     50
18.8061     73
18.8111     68
18.8161     73
18.8211     84
18.8261     56
18.8311     68
18.8361     72
18.8411     83
18.8462     66
18.8512     77
18.8562     48
18.8612     73
18.8662     60
18.8712     59
18.8762     84
18.8812     82
18.8862     61
18.8912     61
18.8962     77
18.9012     58
18.9062     65
18.9112     91
18.9162     62
18.9212     63
18.9262     62
18.9312     66
18.9362     50
18.9412     69
18.9462     57
18.9512     49
18.9562     55
18.9612     53
18.9662     60
18.9713     61
18.9763     58
18.9813     62
18.9863     70
18.9913     51
18.9963     59
19.0013     46
19.0063     67
19.0113     69
19.0163     70
19.0213     57
19.0263     70
19.0313     57
19.0363     56
19.0413     66
19.0463     61
19.0513     63
19.0563     59
19.0613     60
19.0663     45
19.0713     57
19.0763     67
19.0813     57
19.0863     53
19.0913     60
19.0964     71
19.1014     58
19.1064     70
19.1114     63
19.1164     49
19.1214     53
19.1264     69
19.1314     58
19.1364     66
19.1414     70
19.1464     53
19.1514     64
19.1564     63
19.1614     47
19.1664     59
19.1714     57
19.1764     58
19.1814     68
19.1864     55
19.1914     60
19.1964     61
19.2014     69
19.2064     63
19.2114     59
19.2164     54
19.2215     57
19.2265     66
19.2315     56
19.2365     54
19.2415     52
19.2465     62
19.2515     40
19.2565     65
19.2615     56
19.2665     56
19.2715     53
19.2765     66
19.2815     49
19.2865     47
19.2915     58
19.2965     34
19.3015     64
19.3065     54
19.3115     52
19.3165     55
19.3215     50
19.3265     61
19.3315     46
19.3365     61
19.3415     63
19.3466     46
19.3516     51
19.3566     64
19.3616     46
19.3666     43
19.3716     58
19.3766     42
19.3816     58
19.3866     54
19.3916     57
19.3966     51
19.4016     56
19.4066     48
19.4116     53
19.4166     53
19.4216     52
19.4266     68
19.4316     43
19.4366     52
19.4416     75
19.4466     60
19.4516     59
19.4566     52
19.4616     62
19.4666     51
19.4717     69
19.4767     67
19.4817     62
19.4867     69
19.4917     76
19.4967     72
19.5017     70
19.5067     62
19.5117     70
19.5167     58
19.5217     64
19.5267     66
19.5317     68
19.5367     73
19.5417     69
19.5467     82
19.5517     78
19.5567     85
19.5617     69
19.5667     65
19.5717     61
19.5767     72
19.5817     76
19.5867     67
19.5917     66
19.5968     64
19.6018     77
19.6068     72
19.6118     66
19.6168     86
19.6218     81
19.6268     60
19.6318     69
19.6368     63
19.6418     57
19.6468     62
19.6518     57
19.6568     54
19.6618     61
19.6668     51
19.6718     49
19.6768     46
19.6818     60
19.6868     39
19.6918     59
19.6968     53
19.7018     41
19.7068     50
19.7118     46
19.7168     43
19.7219     52
19.7269     40
19.7319     36
19.7369     47
19.7419     44
19.7469     37
19.7519     38
19.7569     39
19.7619     38
19.7669     37
19.7719     35
19.7769     29
19.7819     27
19.7869     35
19.7919     35
19.7969     26
19.8019     33
19.8069     22
19.8119     22
19.8169     16
19.8219     21
19.8269     34
19.8319     26
19.8369     26
19.8419     20
 19.847     34
 19.852     29
 19.857     28
 19.862     25
 19.867     32
 19.872     31
 19.877     24
 19.882     35
 19.887     24
 19.892     24
 19.897     40
 19.902     25
 19.907     33
 19.912     28
 19.917     33
 19.922     22
 19.927     20
 19.932     27
 19.937     28
 19.942     28
 19.947     28
 19.952     27
 19.957     33
 19.962     25
 19.967     35
19.9721     37
19.9771     24
19.9821     24
19.9871     25
19.9921     33
19.9971     31
20.0021     41
20.0071     28
